Frequency (Hz)    Magnitude (dB)    Phase (deg)
100.0            -0.1              0.0
200.0            -0.2              0.5
500.0            -0.5              1.2
1000.0           -1.0              2.1
2000.0           -2.1              4.3
3000.0           -3.2              6.8
4000.0           -4.5              9.2
5000.0           -6.1              12.5
6000.0           -8.2              16.3
7000.0           -10.8             21.4
8000.0           -14.2             28.7
9000.0           -18.5             37.2
10000.0          -23.1             45.8
11000.0          -28.7             54.3
12000.0          -35.2             62.1
13000.0          -42.8             68.9
14000.0          -51.3             74.2
15000.0          -60.1             78.5
16000.0          -69.8             81.2
17000.0          -79.5             83.1
18000.0          -89.2             84.7
19000.0          -98.8             85.9
20000.0          -108.5            86.8 